Title=positivo 5 5min
Comment=Rejillas de 0.5 y 1.0
Signature=ISS_Experiment_Ver_1_0
Timestamp=Wed Jul 23 15:38:29 2025
Product=Vinci 3
SoftwareVersion=RELEASE.3.2.4
BuildNumber=518
RealTimeStart=5049.0510268

AcquisitionType=Photon Counting
AcquisitionFormat=L
AcquisitionSide=Right

Measurable=Intensity
MaxIterations=10

RightEmissionWavelengthBandwidth=8.0
ExcitationWavelengthBandwidth=8.0
Visualization=Y:Intensity,X:EmissionWavelength,PlotType:2D


EmissionWavelength=type:numeric,unit:nm,from:490.0,to:650.0,step:1.0
ExcitationWavelength=type:numeric,unit:nm,fixed:470.0

Space=EmissionWavelength
Columns=EmissionWavelength,Intensity,IntensityStdError,RealTime,RealTemperature
Dark=124.8, 593.6
[Data]
        490.00	     147562.40	     417.58885	     5054.1823	     20.000000
        491.00	     180994.40	     508.69943	     5055.6854	     20.000000
        492.00	     217906.40	     563.04726	     5056.8382	     20.000000
        493.00	     256450.40	     561.91577	     5058.0011	     20.000000
        494.00	     291638.40	     525.13025	     5059.1529	     20.000000
        495.00	     324694.40	     824.12081	     5060.3112	     19.990000
        496.00	     350066.40	     591.32244	     5061.4910	     19.990000
        497.00	     371546.40	     867.26646	     5062.7316	     19.990000
        498.00	     384230.40	     552.65661	     5063.8804	     20.000000
        499.00	     391878.40	     581.14982	     5065.0375	     20.000000
        500.00	     394458.40	     721.48119	     5066.1784	     20.000000
        501.00	     392690.40	     781.80304	     5067.3373	     20.000000
        502.00	     386094.40	     941.84311	     5068.4956	     20.000000
        503.00	     380634.40	     639.16751	     5069.6520	     20.000000
        504.00	     371854.40	     765.05454	     5070.7677	     20.003300
        505.00	     364786.40	     641.75454	     5071.9545	     20.000000
        506.00	     354706.40	     1117.7000	     5073.1037	     20.000000
        507.00	     347490.40	     724.80986	     5074.2625	     20.000000
        508.00	     340190.40	     717.38290	     5075.4075	     20.000000
        509.00	     335170.40	     590.24515	     5076.5589	     20.000000
        510.00	     330222.40	     410.49347	     5077.7312	     20.000000
        511.00	     326290.40	     550.14988	     5078.9891	     20.000000
        512.00	     323318.40	     763.33304	     5080.1356	     20.000000
        513.00	     321646.40	     829.58624	     5081.2941	     20.000000
        514.00	     318554.40	     574.94502	     5082.4485	     20.000000
        515.00	     317858.40	     603.98823	     5083.6062	     20.003300
        516.00	     316198.40	     734.97513	     5084.7647	     20.003300
        517.00	     315054.40	     532.39250	     5085.9269	     20.003300
        518.00	     312838.40	     673.74377	     5087.0675	     20.003300
        519.00	     311030.40	     844.79478	     5088.1930	     20.000000
        520.00	     309730.40	     495.18392	     5089.3919	     20.000000
        521.00	     306570.40	     705.36862	     5090.5533	     20.000000
        522.00	     304666.40	     477.59583	     5091.7051	     20.000000
        523.00	     302278.40	     518.82945	     5092.8655	     20.000000
        524.00	     297334.40	     398.38786	     5094.0221	     20.000000
        525.00	     293922.40	     667.87757	     5095.1762	     20.000000
        526.00	     290074.40	     499.03195	     5096.3357	     20.000000
        527.00	     285450.40	     574.06000	     5097.4972	     20.000000
        528.00	     277994.40	     500.31279	     5098.6496	     20.000000
        529.00	     271174.40	     558.65871	     5099.8131	     20.000000
        530.00	     266626.40	     546.51217	     5100.9672	     20.000000
        531.00	     256694.40	     739.24406	     5102.1318	     20.000000
        532.00	     250066.40	     316.71929	     5103.2897	     20.000000
        533.00	     242286.40	     498.60249	     5104.4496	     20.000000
        534.00	     234518.40	     407.38952	     5105.6079	     20.000000
        535.00	     227394.40	     441.77621	     5106.7571	     20.000000
        536.00	     217862.40	     354.68672	     5107.9157	     20.000000
        537.00	     210486.40	     372.80916	     5109.0742	     20.000000
        538.00	     201946.40	     481.56227	     5110.2364	     20.000000
        539.00	     194218.40	     618.07011	     5111.3924	     20.000000
        540.00	     186202.40	     379.68174	     5112.5442	     20.000000
        541.00	     178550.40	     502.51633	     5113.6556	     20.000000
        542.00	     171238.40	     558.24487	     5114.8481	     20.000000
        543.00	     163138.40	     455.25280	     5116.0025	     20.000000
        544.00	     157526.40	     338.83460	     5117.1584	     20.000000
        545.00	     150282.40	     242.39179	     5118.3174	     20.000000
        546.00	     143002.40	     387.51401	     5119.4759	     20.000000
        547.00	     136838.40	     519.37741	     5120.6302	     20.000000
        548.00	     130570.40	     378.13343	     5121.8067	     20.000000
        549.00	     124702.40	     324.64408	     5122.9549	     20.000000
        550.00	     119654.40	     262.48725	     5124.1246	     20.000000
        551.00	     115230.40	     363.84124	     5125.2699	     20.000000
        552.00	     110250.40	     385.39792	     5126.4324	     20.000000
        553.00	     105778.40	     409.48966	     5127.5739	     20.000000
        554.00	     101710.40	     406.18332	     5128.7467	     20.003300
        555.00	     97274.400	     401.28903	     5129.8997	     20.003300
        556.00	     93018.400	     286.77827	     5131.0487	     20.003300
        557.00	     89042.400	     291.47594	     5132.2108	     20.000000
        558.00	     85318.400	     322.75481	     5133.3637	     20.000000
        559.00	     82850.400	     340.53292	     5134.5257	     20.000000
        560.00	     79254.400	     313.47798	     5135.6690	     20.000000
        561.00	     76978.400	     334.24143	     5136.8315	     20.000000
        562.00	     73526.400	     420.87739	     5137.9831	     20.000000
        563.00	     71026.400	     207.18215	     5139.1204	     20.000000
        564.00	     68498.400	     252.14105	     5140.3112	     20.000000
        565.00	     65962.400	     287.48411	     5141.5497	     20.000000
        566.00	     63194.400	     175.37769	     5142.7047	     20.000000
        567.00	     61462.400	     286.53951	     5143.8636	     20.000000
        568.00	     58502.400	     227.85570	     5145.0084	     20.000000
        569.00	     56810.400	     300.30799	     5146.1804	     20.000000
        570.00	     53982.400	     154.25232	     5147.3332	     20.000000
        571.00	     52926.400	     152.14029	     5148.4946	     20.000000
        572.00	     50842.400	     169.85746	     5149.6470	     20.000000
        573.00	     48898.400	     88.453378	     5150.8037	     20.000000
        574.00	     46838.400	     172.07750	     5151.9643	     20.000000
        575.00	     45018.400	     251.36428	     5153.1010	     20.000000
        576.00	     43334.400	     258.73539	     5154.2714	     20.000000
        577.00	     41582.400	     115.03816	     5155.4164	     20.000000
        578.00	     39622.400	     328.13006	     5156.5821	     20.000000
        579.00	     38378.400	     273.96999	     5157.7460	     20.000000
        580.00	     36914.400	     215.98765	     5158.8959	     20.000000
        581.00	     35290.400	     131.91917	     5160.0548	     20.000000
        582.00	     33742.400	     165.26880	     5161.2168	     20.000000
        583.00	     32310.400	     199.83994	     5162.3591	     20.000000
        584.00	     30922.400	     175.41823	     5163.4861	     20.000000
        585.00	     29494.400	     191.35075	     5164.6894	     20.000000
        586.00	     28486.400	     153.99856	     5165.8398	     20.000000
        587.00	     27278.400	     160.64315	     5167.0056	     20.000000
        588.00	     26042.400	     145.87057	     5168.1563	     20.000000
        589.00	     24906.400	     131.08098	     5169.3067	     20.000000
        590.00	     23902.400	     98.558499	     5170.4666	     20.000000
        591.00	     22974.400	     131.29103	     5171.6252	     20.000000
        592.00	     22234.400	     147.51874	     5172.7787	     20.000000
        593.00	     21074.400	     163.52234	     5173.9301	     20.000000
        594.00	     20090.400	     103.70042	     5175.0862	     20.000000
        595.00	     19206.400	     140.47538	     5176.2321	     20.000000
        596.00	     18290.400	     151.60768	     5177.3893	     20.000000
        597.00	     17722.400	     107.73630	     5178.5516	     20.000000
        598.00	     17014.400	     106.96625	     5179.6966	     20.003300
        599.00	     16210.400	     141.79171	     5180.8717	     20.003300
        600.00	     15514.400	     132.80562	     5182.0163	     20.003300
        601.00	     14766.400	     133.59973	     5183.1912	     20.003300
        602.00	     14418.400	     116.24495	     5184.3441	     20.003300
        603.00	     13662.400	     98.558499	     5185.5051	     20.003300
        604.00	     13042.400	     134.19058	     5186.6604	     20.000000
        605.00	     12342.400	     91.641815	     5187.7804	     19.990000
        606.00	     11810.400	     89.928367	     5188.9717	     19.990000
        607.00	     11542.400	     74.523673	     5190.1252	     19.990000
        608.00	     10910.400	     116.26789	     5191.2777	     19.990000
        609.00	     10674.400	     84.337945	     5192.4327	     20.000000
        610.00	     10118.400	     117.27271	     5193.5907	     20.000000
        611.00	     9606.4000	     100.13324	     5194.7412	     20.000000
        612.00	     9274.4000	     95.972218	     5195.8963	     20.000000
        613.00	     9110.4000	     108.68098	     5197.0599	     20.000000
        614.00	     8730.4000	     100.03555	     5198.2125	     20.000000
        615.00	     8398.4000	     109.26827	     5199.3703	     20.000000
        616.00	     8214.4000	     134.23694	     5200.5360	     20.003300
        617.00	     7914.4000	     77.068512	     5201.6787	     20.003300
        618.00	     7382.4000	     122.23111	     5202.8511	     20.000000
        619.00	     7094.4000	     71.752662	     5204.0021	     20.000000
        620.00	     6942.4000	     101.40348	     5205.1610	     20.000000
        621.00	     6622.4000	     75.941498	     5206.2794	     20.000000
        622.00	     6402.4000	     54.796594	     5207.4689	     20.000000
        623.00	     6094.4000	     76.547734	     5208.6290	     20.000000
        624.00	     5906.4000	     74.535599	     5209.7779	     20.000000
        625.00	     5618.4000	     62.553089	     5210.9423	     20.000000
        626.00	     5286.4000	     62.822501	     5212.1093	     19.990000
        627.00	     5062.4000	     44.301994	     5213.2534	     20.000000
        628.00	     4890.4000	     54.471195	     5214.4379	     20.000000
        629.00	     4894.4000	     65.807801	     5215.6848	     20.000000
        630.00	     4626.4000	     51.725773	     5216.8355	     20.000000
        631.00	     4382.4000	     46.647615	     5218.0072	     20.000000
        632.00	     4278.4000	     69.487009	     5219.1529	     20.000000
        633.00	     4142.4000	     45.097425	     5220.3128	     20.000000
        634.00	     3910.4000	     61.449166	     5221.4738	     20.000000
        635.00	     3962.4000	     41.931161	     5222.6302	     20.000000
        636.00	     3710.4000	     51.708585	     5223.7870	     20.000000
        637.00	     3458.4000	     48.460752	     5224.9587	     20.000000
        638.00	     3490.4000	     58.863307	     5226.1085	     20.000000
        639.00	     3402.4000	     64.069407	     5227.2671	     20.000000
        640.00	     3154.4000	     59.044240	     5228.3811	     20.000000
        641.00	     2994.4000	     46.207263	     5229.5851	     20.000000
        642.00	     2894.4000	     21.333333	     5230.7317	     20.000000
        643.00	     2837.6000	     73.041845	     5231.8878	     20.000000
        644.00	     2781.6000	     38.666667	     5236.0976	     20.000000
        645.00	     2569.6000	     50.946595	     5237.2551	     20.000000
        646.00	     2453.6000	     62.382334	     5238.4336	     20.000000
        647.00	     2405.6000	     49.333333	     5239.6729	     20.000000
        648.00	     2277.6000	     37.735925	     5240.8281	     20.000000
        649.00	     2253.6000	     40.199502	     5241.9836	     20.000000
        650.00	     2117.6000	     40.022216	     5243.1518	     20.000000
